> S^410S at  2166.00 seconds at   130.00 degrees for a     30.0 km deep source in the iasp91 model with rayParam   12.037 s/deg.
    0.00    6341.0
    0.02    6336.0
    0.03    6334.7
    0.03    6333.3
    0.05    6330.7
    0.07    6325.3
    0.13    6314.6
    0.18    6304.1
    0.24    6293.5
    0.30    6281.9
    0.36    6270.2
    0.44    6253.3
    0.46    6251.0
    0.52    6239.7
    0.58    6228.4
    0.61    6221.5
    0.70    6206.0
    0.74    6197.6
    0.79    6189.1
    0.86    6175.1
    0.94    6161.0
    1.01    6147.3
    1.08    6135.3
    1.15    6123.2
    1.22    6111.0
    1.30    6097.3
    1.37    6085.3
    1.44    6073.2
    1.51    6061.0
    1.62    6043.4
    1.71    6027.3
    1.76    6019.8
    1.82    6011.0
    1.85    6005.4
    1.94    5990.7
    2.04    5975.9
    2.14    5961.0
    2.17    5956.6
    2.20    5952.1
    2.23    5947.7
    2.26    5943.2
    2.32    5935.3
    2.37    5927.2
    2.43    5919.1
    2.46    5915.1
    2.49    5911.0
    2.57    5900.8
    2.64    5890.6
    2.80    5869.8
    2.87    5861.0
    2.95    5850.9
    3.01    5843.3
    3.01    5843.3
    3.01    5842.9
    3.01    5842.6
    3.02    5841.9
    3.03    5840.5
    3.04    5839.1
    3.05    5837.8
    3.06    5837.4
    3.06    5837.1
    3.06    5836.4
    3.07    5835.1
    3.09    5832.5
    3.14    5827.2
    3.27    5811.0
    3.42    5793.3
    3.55    5777.2
    3.64    5766.6
    3.69    5761.0
    3.70    5760.0
    3.80    5748.3
    3.84    5743.9
    3.97    5729.8
    3.99    5727.5
    4.14    5711.0
    4.18    5706.6
    4.23    5702.1
    4.33    5693.2
    4.47    5679.4
    4.50    5677.2
    4.59    5669.1
    4.68    5661.0
    4.89    5642.3
    5.11    5623.4
    5.26    5611.0
    5.33    5604.7
    5.41    5598.4
    5.49    5592.1
    5.56    5585.7
    5.71    5573.6
    5.79    5567.6
    5.87    5561.5
    6.03    5548.9
    6.19    5536.3
    6.51    5512.0
    6.84    5486.8
    7.18    5462.5
    7.53    5437.3
    7.88    5413.0
    8.25    5387.8
    8.62    5363.5
    9.02    5338.3
    9.41    5314.0
    9.82    5288.9
   10.24    5264.5
   10.68    5239.3
   10.89    5227.2
   11.11    5215.0
   11.57    5190.3
   12.05    5165.5
   12.48    5143.8
   12.50    5143.0
   12.51    5142.2
   12.55    5140.6
   12.61    5137.4
   12.68    5134.2
   12.74    5131.0
   12.87    5124.6
   13.01    5118.1
   13.05    5116.0
   13.18    5110.0
   13.31    5104.1
   13.56    5092.1
   13.63    5088.9
   13.70    5085.7
   13.84    5079.3
   14.13    5066.5
   14.70    5041.8
   15.30    5017.0
   15.35    5014.8
   15.41    5012.6
   15.98    4990.1
   16.58    4967.5
   17.54    4933.5
   17.76    4925.8
   18.00    4918.0
   18.77    4893.3
   19.59    4868.5
   20.34    4848.3
   21.08    4828.2
   21.26    4823.6
   21.44    4819.0
   21.97    4806.6
   22.50    4794.3
   23.08    4781.9
   23.69    4769.5
   24.30    4758.3
   24.92    4747.0
   25.65    4735.7
   26.38    4724.4
   26.54    4722.2
   26.71    4720.0
   27.45    4711.8
   28.20    4703.5
   28.94    4695.3
   29.81    4689.1
   30.68    4682.9
   31.63    4680.3
   32.59    4677.7
   33.54    4675.1
   34.49    4677.7
   35.45    4680.3
   36.40    4682.9
   37.27    4689.1
   38.14    4695.3
   38.88    4703.5
   39.63    4711.8
   40.37    4720.0
   40.54    4722.2
   40.70    4724.4
   41.43    4735.7
   42.16    4747.0
   42.78    4758.3
   43.39    4769.5
   44.00    4781.9
   44.58    4794.3
   45.11    4806.6
   45.64    4819.0
   45.82    4823.6
   46.00    4828.2
   46.74    4848.3
   47.49    4868.5
   48.31    4893.3
   49.08    4918.0
   49.32    4925.8
   49.54    4933.5
   50.50    4967.5
   51.10    4990.1
   51.67    5012.6
   51.73    5014.8
   51.78    5017.0
   52.38    5041.8
   52.95    5066.5
   53.24    5079.3
   53.38    5085.7
   53.45    5088.9
   53.52    5092.1
   53.77    5104.1
   53.90    5110.0
   54.03    5116.0
   54.07    5118.1
   54.21    5124.6
   54.34    5131.0
   54.40    5134.2
   54.47    5137.4
   54.53    5140.6
   54.57    5142.2
   54.58    5143.0
   54.60    5143.8
   55.03    5165.5
   55.51    5190.3
   55.97    5215.0
   56.19    5227.2
   56.40    5239.3
   56.84    5264.5
   57.26    5288.9
   57.67    5314.0
   58.06    5338.3
   58.46    5363.5
   58.83    5387.8
   59.20    5413.0
   59.55    5437.3
   59.90    5462.5
   60.24    5486.8
   60.57    5512.0
   60.89    5536.3
   61.05    5548.9
   61.21    5561.5
   61.29    5567.6
   61.37    5573.6
   61.52    5585.7
   61.59    5592.1
   61.67    5598.4
   61.75    5604.7
   61.82    5611.0
   61.97    5623.4
   62.19    5642.3
   62.40    5661.0
   62.49    5669.1
   62.58    5677.2
   62.61    5679.4
   62.75    5693.2
   62.85    5702.1
   62.90    5706.6
   62.94    5711.0
   63.09    5727.5
   63.11    5729.8
   63.24    5743.9
   63.28    5748.3
   63.38    5760.0
   63.39    5761.0
   63.44    5766.6
   63.53    5777.2
   63.66    5793.3
   63.81    5811.0
   63.94    5827.2
   63.99    5832.5
   64.01    5835.1
   64.02    5836.4
   64.02    5837.1
   64.02    5837.4
   64.03    5837.8
   64.04    5839.1
   64.05    5840.5
   64.06    5841.9
   64.07    5842.6
   64.07    5842.9
   64.07    5843.3
   64.07    5843.3
   64.13    5850.9
   64.21    5861.0
   64.28    5869.8
   64.44    5890.6
   64.51    5900.8
   64.59    5911.0
   64.62    5915.1
   64.65    5919.1
   64.71    5927.2
   64.76    5935.3
   64.82    5943.2
   64.85    5947.7
   64.88    5952.1
   64.91    5956.6
   64.94    5961.0
   64.98    5956.6
   65.01    5952.1
   65.04    5947.7
   65.07    5943.2
   65.13    5935.3
   65.18    5927.2
   65.24    5919.1
   65.27    5915.1
   65.30    5911.0
   65.38    5900.8
   65.45    5890.6
   65.61    5869.8
   65.68    5861.0
   65.76    5850.9
   65.82    5843.3
   65.82    5843.3
   65.82    5842.9
   65.82    5842.6
   65.83    5841.9
   65.84    5840.5
   65.85    5839.1
   65.86    5837.8
   65.86    5837.4
   65.87    5837.1
   65.87    5836.4
   65.88    5835.1
   65.90    5832.5
   65.95    5827.2
   66.08    5811.0
   66.23    5793.3
   66.36    5777.2
   66.45    5766.6
   66.50    5761.0
   66.51    5760.0
   66.61    5748.3
   66.65    5743.9
   66.78    5729.8
   66.80    5727.5
   66.95    5711.0
   66.99    5706.6
   67.04    5702.1
   67.13    5693.2
   67.28    5679.4
   67.31    5677.2
   67.40    5669.1
   67.49    5661.0
   67.70    5642.3
   67.92    5623.4
   68.07    5611.0
   68.14    5604.7
   68.22    5598.4
   68.30    5592.1
   68.37    5585.7
   68.52    5573.6
   68.60    5567.6
   68.68    5561.5
   68.84    5548.9
   69.00    5536.3
   69.32    5512.0
   69.65    5486.8
   69.99    5462.5
   70.34    5437.3
   70.69    5413.0
   71.06    5387.8
   71.43    5363.5
   71.83    5338.3
   72.22    5314.0
   72.63    5288.9
   73.04    5264.5
   73.48    5239.3
   73.70    5227.2
   73.92    5215.0
   74.38    5190.3
   74.86    5165.5
   75.29    5143.8
   75.31    5143.0
   75.32    5142.2
   75.35    5140.6
   75.42    5137.4
   75.49    5134.2
   75.55    5131.0
   75.68    5124.6
   75.82    5118.1
   75.86    5116.0
   75.99    5110.0
   76.11    5104.1
   76.37    5092.1
   76.44    5088.9
   76.51    5085.7
   76.65    5079.3
   76.94    5066.5
   77.51    5041.8
   78.11    5017.0
   78.16    5014.8
   78.22    5012.6
   78.79    4990.1
   79.39    4967.5
   80.35    4933.5
   80.57    4925.8
   80.81    4918.0
   81.58    4893.3
   82.40    4868.5
   83.14    4848.3
   83.89    4828.2
   84.07    4823.6
   84.25    4819.0
   84.78    4806.6
   85.31    4794.3
   85.88    4781.9
   86.50    4769.5
   87.11    4758.3
   87.73    4747.0
   88.46    4735.7
   89.19    4724.4
   89.35    4722.2
   89.52    4720.0
   90.26    4711.8
   91.01    4703.5
   91.75    4695.3
   92.62    4689.1
   93.49    4682.9
   94.44    4680.3
   95.39    4677.7
   96.35    4675.1
   97.30    4677.7
   98.26    4680.3
   99.21    4682.9
  100.08    4689.1
  100.94    4695.3
  101.69    4703.5
  102.44    4711.8
  103.18    4720.0
  103.35    4722.2
  103.51    4724.4
  104.24    4735.7
  104.97    4747.0
  105.58    4758.3
  106.20    4769.5
  106.81    4781.9
  107.39    4794.3
  107.92    4806.6
  108.45    4819.0
  108.63    4823.6
  108.81    4828.2
  109.55    4848.3
  110.30    4868.5
  111.12    4893.3
  111.89    4918.0
  112.12    4925.8
  112.35    4933.5
  113.31    4967.5
  113.91    4990.1
  114.48    5012.6
  114.53    5014.8
  114.59    5017.0
  115.19    5041.8
  115.76    5066.5
  116.05    5079.3
  116.19    5085.7
  116.26    5088.9
  116.33    5092.1
  116.58    5104.1
  116.71    5110.0
  116.84    5116.0
  116.88    5118.1
  117.01    5124.6
  117.15    5131.0
  117.21    5134.2
  117.28    5137.4
  117.34    5140.6
  117.38    5142.2
  117.39    5143.0
  117.41    5143.8
  117.84    5165.5
  118.32    5190.3
  118.77    5215.0
  119.00    5227.2
  119.21    5239.3
  119.65    5264.5
  120.07    5288.9
  120.48    5314.0
  120.87    5338.3
  121.27    5363.5
  121.63    5387.8
  122.01    5413.0
  122.36    5437.3
  122.71    5462.5
  123.04    5486.8
  123.38    5512.0
  123.70    5536.3
  123.86    5548.9
  124.02    5561.5
  124.10    5567.6
  124.17    5573.6
  124.32    5585.7
  124.40    5592.1
  124.48    5598.4
  124.56    5604.7
  124.63    5611.0
  124.78    5623.4
  125.00    5642.3
  125.21    5661.0
  125.30    5669.1
  125.39    5677.2
  125.42    5679.4
  125.56    5693.2
  125.66    5702.1
  125.70    5706.6
  125.75    5711.0
  125.90    5727.5
  125.92    5729.8
  126.05    5743.9
  126.09    5748.3
  126.19    5760.0
  126.20    5761.0
  126.25    5766.6
  126.34    5777.2
  126.47    5793.3
  126.62    5811.0
  126.75    5827.2
  126.79    5832.5
  126.82    5835.1
  126.83    5836.4
  126.83    5837.1
  126.83    5837.4
  126.84    5837.8
  126.85    5839.1
  126.86    5840.5
  126.87    5841.9
  126.87    5842.6
  126.88    5842.9
  126.88    5843.3
  126.88    5843.3
  126.94    5850.9
  127.02    5861.0
  127.09    5869.8
  127.24    5890.6
  127.32    5900.8
  127.40    5911.0
  127.43    5915.1
  127.46    5919.1
  127.51    5927.2
  127.57    5935.3
  127.63    5943.2
  127.66    5947.7
  127.69    5952.1
  127.72    5956.6
  127.75    5961.0
  127.85    5975.9
  127.95    5990.7
  128.04    6005.4
  128.07    6011.0
  128.13    6019.8
  128.18    6027.3
  128.27    6043.4
  128.38    6061.0
  128.45    6073.2
  128.52    6085.3
  128.59    6097.3
  128.67    6111.0
  128.74    6123.2
  128.81    6135.3
  128.88    6147.3
  128.95    6161.0
  129.03    6175.1
  129.10    6189.1
  129.15    6197.6
  129.19    6206.0
  129.28    6221.5
  129.31    6228.4
  129.37    6239.7
  129.43    6251.0
  129.44    6253.3
  129.53    6270.2
  129.59    6281.9
  129.65    6293.5
  129.71    6304.1
  129.76    6314.6
  129.82    6325.3
  129.84    6330.7
  129.86    6333.3
  129.86    6334.7
  129.87    6336.0
  129.89    6341.0
  129.90    6343.5
  129.91    6347.2
  129.92    6349.1
  129.93    6350.1
  129.93    6351.0
  129.95    6356.0
  129.96    6361.0
  129.98    6366.0
  129.99    6368.5
  130.00    6369.8
  130.00    6371.0
> SS at  2323.38 seconds at   130.00 degrees for a     30.0 km deep source in the iasp91 model with rayParam   12.297 s/deg.
    0.00    6341.0
    0.02    6336.0
    0.03    6334.7
    0.03    6333.3
    0.05    6330.7
    0.08    6325.3
    0.13    6314.6
    0.19    6304.1
    0.24    6293.5
    0.30    6281.9
    0.37    6270.2
    0.46    6253.3
    0.47    6251.0
    0.53    6239.7
    0.59    6228.4
    0.63    6221.5
    0.72    6206.0
    0.76    6197.6
    0.81    6189.1
    0.89    6175.1
    0.97    6161.0
    1.04    6147.3
    1.11    6135.3
    1.18    6123.2
    1.25    6111.0
    1.33    6097.3
    1.41    6085.3
    1.48    6073.2
    1.55    6061.0
    1.66    6043.4
    1.76    6027.3
    1.81    6019.8
    1.87    6011.0
    1.91    6005.4
    2.00    5990.7
    2.10    5975.9
    2.20    5961.0
    2.23    5956.6
    2.26    5952.1
    2.30    5947.7
    2.33    5943.2
    2.39    5935.3
    2.45    5927.2
    2.51    5919.1
    2.54    5915.1
    2.57    5911.0
    2.65    5900.8
    2.73    5890.6
    2.89    5869.8
    2.96    5861.0
    3.04    5850.9
    3.10    5843.3
    3.10    5843.3
    3.11    5842.9
    3.11    5842.6
    3.11    5841.9
    3.13    5840.5
    3.14    5839.1
    3.15    5837.8
    3.15    5837.4
    3.15    5837.1
    3.16    5836.4
    3.17    5835.1
    3.19    5832.5
    3.24    5827.2
    3.37    5811.0
    3.53    5793.3
    3.67    5777.2
    3.76    5766.6
    3.81    5761.0
    3.82    5760.0
    3.93    5748.3
    3.97    5743.9
    4.10    5729.8
    4.12    5727.5
    4.28    5711.0
    4.32    5706.6
    4.37    5702.1
    4.47    5693.2
    4.63    5679.4
    4.65    5677.2
    4.74    5669.1
    4.84    5661.0
    5.06    5642.3
    5.29    5623.4
    5.45    5611.0
    5.53    5604.7
    5.61    5598.4
    5.69    5592.1
    5.78    5585.7
    5.93    5573.6
    6.01    5567.6
    6.09    5561.5
    6.26    5548.9
    6.43    5536.3
    6.77    5512.0
    7.13    5486.8
    7.48    5462.5
    7.86    5437.3
    8.23    5413.0
    8.63    5387.8
    9.03    5363.5
    9.45    5338.3
    9.87    5314.0
   10.31    5288.9
   10.76    5264.5
   11.24    5239.3
   11.47    5227.2
   11.72    5215.0
   12.22    5190.3
   12.74    5165.5
   13.21    5143.8
   13.23    5143.0
   13.25    5142.2
   13.29    5140.6
   13.36    5137.4
   13.43    5134.2
   13.50    5131.0
   13.65    5124.6
   13.80    5118.1
   13.85    5116.0
   13.99    5110.0
   14.13    5104.1
   14.41    5092.1
   14.49    5088.9
   14.57    5085.7
   14.73    5079.3
   15.05    5066.5
   15.70    5041.8
   16.38    5017.0
   16.44    5014.8
   16.50    5012.6
   17.16    4990.1
   17.86    4967.5
   18.43    4950.5
   18.99    4933.5
   19.27    4925.8
   19.55    4918.0
   20.50    4893.3
   21.02    4880.9
   21.55    4868.5
   22.55    4848.3
   23.54    4828.2
   23.80    4823.6
   24.07    4819.0
   24.89    4806.6
   25.71    4794.3
   26.21    4788.1
   26.71    4781.9
   27.33    4775.7
   27.94    4769.5
   28.84    4765.6
   29.73    4761.6
   30.63    4757.7
   31.52    4753.8
   32.41    4749.9
   33.31    4753.8
   34.20    4757.7
   35.10    4761.6
   35.99    4765.6
   36.89    4769.5
   37.50    4775.7
   38.12    4781.9
   38.62    4788.1
   39.12    4794.3
   39.94    4806.6
   40.76    4819.0
   41.03    4823.6
   41.28    4828.2
   42.28    4848.3
   43.28    4868.5
   43.81    4880.9
   44.33    4893.3
   45.28    4918.0
   45.56    4925.8
   45.84    4933.5
   46.40    4950.5
   46.97    4967.5
   47.67    4990.1
   48.33    5012.6
   48.39    5014.8
   48.45    5017.0
   49.13    5041.8
   49.78    5066.5
   50.10    5079.3
   50.26    5085.7
   50.34    5088.9
   50.42    5092.1
   50.70    5104.1
   50.84    5110.0
   50.98    5116.0
   51.03    5118.1
   51.18    5124.6
   51.33    5131.0
   51.40    5134.2
   51.47    5137.4
   51.54    5140.6
   51.58    5142.2
   51.60    5143.0
   51.62    5143.8
   52.09    5165.5
   52.61    5190.3
   53.11    5215.0
   53.35    5227.2
   53.59    5239.3
   54.07    5264.5
   54.52    5288.9
   54.96    5314.0
   55.38    5338.3
   55.80    5363.5
   56.20    5387.8
   56.60    5413.0
   56.97    5437.3
   57.35    5462.5
   57.70    5486.8
   58.06    5512.0
   58.39    5536.3
   58.57    5548.9
   58.74    5561.5
   58.82    5567.6
   58.90    5573.6
   59.05    5585.7
   59.14    5592.1
   59.22    5598.4
   59.30    5604.7
   59.38    5611.0
   59.54    5623.4
   59.77    5642.3
   59.99    5661.0
   60.08    5669.1
   60.18    5677.2
   60.20    5679.4
   60.36    5693.2
   60.46    5702.1
   60.51    5706.6
   60.55    5711.0
   60.71    5727.5
   60.73    5729.8
   60.86    5743.9
   60.90    5748.3
   61.01    5760.0
   61.02    5761.0
   61.07    5766.6
   61.16    5777.2
   61.30    5793.3
   61.46    5811.0
   61.59    5827.2
   61.64    5832.5
   61.66    5835.1
   61.67    5836.4
   61.68    5837.1
   61.68    5837.4
   61.68    5837.8
   61.69    5839.1
   61.70    5840.5
   61.71    5841.9
   61.72    5842.6
   61.72    5842.9
   61.73    5843.3
   61.73    5843.3
   61.79    5850.9
   61.87    5861.0
   61.94    5869.8
   62.10    5890.6
   62.18    5900.8
   62.26    5911.0
   62.29    5915.1
   62.32    5919.1
   62.38    5927.2
   62.44    5935.3
   62.50    5943.2
   62.53    5947.7
   62.57    5952.1
   62.60    5956.6
   62.63    5961.0
   62.73    5975.9
   62.83    5990.7
   62.92    6005.4
   62.96    6011.0
   63.02    6019.8
   63.06    6027.3
   63.17    6043.4
   63.28    6061.0
   63.35    6073.2
   63.42    6085.3
   63.50    6097.3
   63.58    6111.0
   63.65    6123.2
   63.72    6135.3
   63.79    6147.3
   63.86    6161.0
   63.94    6175.1
   64.02    6189.1
   64.07    6197.6
   64.11    6206.0
   64.20    6221.5
   64.24    6228.4
   64.30    6239.7
   64.36    6251.0
   64.37    6253.3
   64.46    6270.2
   64.52    6281.9
   64.59    6293.5
   64.64    6304.1
   64.70    6314.6
   64.75    6325.3
   64.78    6330.7
   64.80    6333.3
   64.80    6334.7
   64.81    6336.0
   64.83    6341.0
   64.84    6343.5
   64.86    6347.2
   64.86    6349.1
   64.87    6350.1
   64.87    6351.0
   64.89    6356.0
   64.91    6361.0
   64.93    6366.0
   64.93    6368.5
   64.94    6369.8
   64.94    6371.0
   64.95    6369.8
   64.95    6368.5
   64.96    6366.0
   64.98    6361.0
   65.00    6356.0
   65.02    6351.0
   65.02    6350.1
   65.02    6349.1
   65.03    6347.2
   65.05    6343.5
   65.06    6341.0
   65.08    6336.0
   65.08    6334.7
   65.09    6333.3
   65.11    6330.7
   65.13    6325.3
   65.19    6314.6
   65.24    6304.1
   65.30    6293.5
   65.36    6281.9
   65.42    6270.2
   65.51    6253.3
   65.53    6251.0
   65.59    6239.7
   65.65    6228.4
   65.69    6221.5
   65.77    6206.0
   65.82    6197.6
   65.87    6189.1
   65.94    6175.1
   66.02    6161.0
   66.10    6147.3
   66.17    6135.3
   66.24    6123.2
   66.31    6111.0
   66.39    6097.3
   66.46    6085.3
   66.54    6073.2
   66.61    6061.0
   66.72    6043.4
   66.82    6027.3
   66.87    6019.8
   66.93    6011.0
   66.96    6005.4
   67.06    5990.7
   67.16    5975.9
   67.26    5961.0
   67.29    5956.6
   67.32    5952.1
   67.35    5947.7
   67.39    5943.2
   67.44    5935.3
   67.50    5927.2
   67.56    5919.1
   67.59    5915.1
   67.63    5911.0
   67.70    5900.8
   67.78    5890.6
   67.95    5869.8
   68.02    5861.0
   68.10    5850.9
   68.16    5843.3
   68.16    5843.3
   68.16    5842.9
   68.17    5842.6
   68.17    5841.9
   68.18    5840.5
   68.19    5839.1
   68.21    5837.8
   68.21    5837.4
   68.21    5837.1
   68.22    5836.4
   68.23    5835.1
   68.25    5832.5
   68.29    5827.2
   68.43    5811.0
   68.58    5793.3
   68.72    5777.2
   68.82    5766.6
   68.87    5761.0
   68.88    5760.0
   68.98    5748.3
   69.02    5743.9
   69.15    5729.8
   69.18    5727.5
   69.33    5711.0
   69.38    5706.6
   69.43    5702.1
   69.53    5693.2
   69.68    5679.4
   69.71    5677.2
   69.80    5669.1
   69.90    5661.0
   70.12    5642.3
   70.35    5623.4
   70.51    5611.0
   70.59    5604.7
   70.67    5598.4
   70.75    5592.1
   70.83    5585.7
   70.99    5573.6
   71.07    5567.6
   71.15    5561.5
   71.32    5548.9
   71.49    5536.3
   71.83    5512.0
   72.19    5486.8
   72.54    5462.5
   72.92    5437.3
   73.29    5413.0
   73.69    5387.8
   74.08    5363.5
   74.50    5338.3
   74.92    5314.0
   75.37    5288.9
   75.82    5264.5
   76.30    5239.3
   76.53    5227.2
   76.77    5215.0
   77.27    5190.3
   77.80    5165.5
   78.27    5143.8
   78.29    5143.0
   78.31    5142.2
   78.34    5140.6
   78.41    5137.4
   78.49    5134.2
   78.56    5131.0
   78.71    5124.6
   78.85    5118.1
   78.90    5116.0
   79.04    5110.0
   79.18    5104.1
   79.47    5092.1
   79.55    5088.9
   79.63    5085.7
   79.79    5079.3
   80.11    5066.5
   80.75    5041.8
   81.44    5017.0
   81.50    5014.8
   81.56    5012.6
   82.22    4990.1
   82.92    4967.5
   83.48    4950.5
   84.05    4933.5
   84.32    4925.8
   84.61    4918.0
   85.56    4893.3
   86.08    4880.9
   86.60    4868.5
   87.60    4848.3
   88.60    4828.2
   88.86    4823.6
   89.13    4819.0
   89.95    4806.6
   90.76    4794.3
   91.27    4788.1
   91.77    4781.9
   92.38    4775.7
   93.00    4769.5
   93.89    4765.6
   94.79    4761.6
   95.68    4757.7
   96.58    4753.8
   97.47    4749.9
   98.37    4753.8
   99.26    4757.7
  100.15    4761.6
  101.05    4765.6
  101.94    4769.5
  102.56    4775.7
  103.18    4781.9
  103.68    4788.1
  104.18    4794.3
  105.00    4806.6
  105.81    4819.0
  106.08    4823.6
  106.34    4828.2
  107.34    4848.3
  108.34    4868.5
  108.86    4880.9
  109.39    4893.3
  110.34    4918.0
  110.62    4925.8
  110.89    4933.5
  111.46    4950.5
  112.03    4967.5
  112.73    4990.1
  113.38    5012.6
  113.45    5014.8
  113.51    5017.0
  114.19    5041.8
  114.83    5066.5
  115.16    5079.3
  115.32    5085.7
  115.39    5088.9
  115.47    5092.1
  115.76    5104.1
  115.90    5110.0
  116.04    5116.0
  116.09    5118.1
  116.24    5124.6
  116.38    5131.0
  116.46    5134.2
  116.53    5137.4
  116.60    5140.6
  116.64    5142.2
  116.65    5143.0
  116.67    5143.8
  117.15    5165.5
  117.67    5190.3
  118.17    5215.0
  118.41    5227.2
  118.65    5239.3
  119.13    5264.5
  119.57    5288.9
  120.02    5314.0
  120.44    5338.3
  120.86    5363.5
  121.25    5387.8
  121.65    5413.0
  122.03    5437.3
  122.40    5462.5
  122.76    5486.8
  123.12    5512.0
  123.45    5536.3
  123.62    5548.9
  123.79    5561.5
  123.87    5567.6
  123.95    5573.6
  124.11    5585.7
  124.19    5592.1
  124.28    5598.4
  124.36    5604.7
  124.44    5611.0
  124.59    5623.4
  124.82    5642.3
  125.05    5661.0
  125.14    5669.1
  125.23    5677.2
  125.26    5679.4
  125.41    5693.2
  125.51    5702.1
  125.56    5706.6
  125.61    5711.0
  125.77    5727.5
  125.79    5729.8
  125.92    5743.9
  125.96    5748.3
  126.07    5760.0
  126.08    5761.0
  126.13    5766.6
  126.22    5777.2
  126.36    5793.3
  126.51    5811.0
  126.65    5827.2
  126.69    5832.5
  126.72    5835.1
  126.73    5836.4
  126.73    5837.1
  126.73    5837.4
  126.74    5837.8
  126.75    5839.1
  126.76    5840.5
  126.77    5841.9
  126.78    5842.6
  126.78    5842.9
  126.78    5843.3
  126.78    5843.3
  126.85    5850.9
  126.93    5861.0
  127.00    5869.8
  127.16    5890.6
  127.24    5900.8
  127.32    5911.0
  127.35    5915.1
  127.38    5919.1
  127.44    5927.2
  127.50    5935.3
  127.56    5943.2
  127.59    5947.7
  127.62    5952.1
  127.66    5956.6
  127.69    5961.0
  127.79    5975.9
  127.89    5990.7
  127.98    6005.4
  128.02    6011.0
  128.07    6019.8
  128.12    6027.3
  128.22    6043.4
  128.33    6061.0
  128.41    6073.2
  128.48    6085.3
  128.55    6097.3
  128.63    6111.0
  128.71    6123.2
  128.78    6135.3
  128.84    6147.3
  128.92    6161.0
  129.00    6175.1
  129.08    6189.1
  129.12    6197.6
  129.17    6206.0
  129.26    6221.5
  129.29    6228.4
  129.36    6239.7
  129.42    6251.0
  129.43    6253.3
  129.52    6270.2
  129.58    6281.9
  129.64    6293.5
  129.70    6304.1
  129.75    6314.6
  129.81    6325.3
  129.84    6330.7
  129.85    6333.3
  129.86    6334.7
  129.87    6336.0
  129.89    6341.0
  129.90    6343.5
  129.91    6347.2
  129.92    6349.1
  129.92    6350.1
  129.93    6351.0
  129.95    6356.0
  129.96    6361.0
  129.98    6366.0
  129.99    6368.5
  130.00    6369.8
  130.00    6371.0
